File: Curekinetics/LME_0_12b.txt
Filename:	D:\Clemens 2016\LME_0_12b.drdd
Operator ID:
Sample ID:	LME_0_12b
Comment: 	Isothermal 150C /480min
Serial Number:	587P2203
Data Collected:	25-10-2016 22:07:22
Sample Weight:	10.400 mg
Display Weight:	10.400
Validation
Validated:	No
By:
Date:
Calibration Information
Filename:	C:\Program Files\PerkinElmer\Pyris\Calibrations\default.drdc
Date/Time:
Initial Conditions
Temperature:	 100.00 °C
Y Initial:	20.00 mW
Sample Rate:	Standard
Baseline Filename:	D:\foostrum\FiberCore baseline.drdd
End Condition:	Go To Load
Total Points in Run:	28830
Method Steps:
Pre-Run Actions
Start the Run
	Action occurs Immediately
Switch the Gas to Nitrogen at 20.0 ml/min
	Action occurs Immediately
1)	Heat from 100.00°C to 150.00°C at 100.00°C/min

2)	Hold for 480.0 min at 150.00°C

1) Sapphire DSC Temperature Scan
	Time     	Unsubtracted	Baseline     	Program     	Sample     	Approx.     	Heat Flow
	          	Heat Flow     	Heat Flow     	Temperature	Temperature	Gas Flow     	Calibration
	0.000000	-5.623859	0.000000	101.667	153.025	0.000000	1.480999
	0.016667	-5.236370	0.000000	101.667	153.051	0.000000	1.480999
	0.033333	-4.819432	0.000000	103.333	153.067	0.000000	1.480999
	0.050000	-4.411462	0.000000	105	153.072	0.000000	1.480999
	0.066667	-4.051020	0.000000	106.667	153.068	0.000000	1.480999
	0.083333	-3.671158	0.000000	108.333	153.052	0.000000	1.480999
	0.100000	-3.309091	0.000000	110	153.03	0.000000	1.480999
	0.116667	-3.028590	0.000000	111.667	153.003	0.000000	1.480999
	0.133333	-2.675493	0.000000	113.333	152.964	0.000000	1.480999
	0.150000	-2.426559	0.000000	115	152.924	0.000000	1.480999
	0.166667	-2.114985	0.000000	116.667	152.866	0.000000	1.480999
	0.183333	-1.894511	0.000000	118.333	152.81	0.000000	1.480999
	0.200000	-1.661890	0.000000	120	152.743	0.000000	1.480999
	0.216667	-1.398903	0.000000	121.667	152.66	0.000000	1.480999
	0.233333	-1.211761	0.000000	123.333	152.583	0.000000	1.480999
	0.250000	-0.994818	0.000000	125	152.493	0.000000	1.480999
	0.266667	-0.788679	0.000000	126.667	152.386	0.000000	1.480999
	0.283333	-0.592216	0.000000	128.333	152.283	0.000000	1.480999
	0.300000	-0.438194	0.000000	130	152.184	0.000000	1.480999
	0.316667	-0.259103	0.000000	131.667	152.071	0.000000	1.480999
	0.333333	-0.102963	0.000000	133.333	151.951	0.000000	1.480999
	0.350000	0.045832	0.000000	135	151.824	0.000000	1.480999
	0.366667	0.216378	0.000000	136.667	151.682	0.000000	1.480999
	0.383333	0.351827	0.000000	138.333	151.548	0.000000	1.480999
	0.400000	0.493913	0.000000	140	151.409	0.000000	1.480999
	0.416667	0.604998	0.000000	141.667	151.279	0.000000	1.480999
	0.433333	0.747861	0.000000	143.333	151.121	0.000000	1.480999
	0.450000	0.849341	0.000000	145	150.988	0.000000	1.480999
	0.466667	0.967488	0.000000	146.667	150.838	0.000000	1.480999
	0.483333	1.072499	0.000000	148.333	150.683	0.000000	1.480999
2) Sapphire DSC Isothermal
	0.500000	1.205264	0.000000	150	150.511	0.000000	1.480999
	3.250000	1.520439	0.000000	150	152.626	0.000000	1.480999
	6.000000	1.941473	0.000000	150	152.859	0.000000	1.480999
	8.750000	2.301491	0.000000	150	153.011	0.000000	1.480999
	11.5	2.487291	0.000000	150	153.111	0.000000	1.480999
	14.25	2.423946	0.000000	150	153.135	0.000000	1.480999
	17	2.162865	0.000000	150	153.153	0.000000	1.480999
	19.75	1.812522	0.000000	150	153.151	0.000000	1.480999
	22.5	1.471076	0.000000	150	153.131	0.000000	1.480999
	25.25	1.170872	0.000000	150	153.114	0.000000	1.480999
	28	0.928930	0.000000	150	153.117	0.000000	1.480999
	30.75	0.728723	0.000000	150	153.101	0.000000	1.480999
	33.5	0.575267	0.000000	150	153.086	0.000000	1.480999
	36.25	0.444903	0.000000	150	153.081	0.000000	1.480999
	39	0.344906	0.000000	150	153.073	0.000000	1.480999
	41.75	0.259456	0.000000	150	153.062	0.000000	1.480999
	44.5	0.188907	0.000000	150	153.059	0.000000	1.480999
	47.25	0.130576	0.000000	150	153.05	0.000000	1.480999
	50	0.077611	0.000000	150	153.043	0.000000	1.480999
	52.75	0.034392	0.000000	150	153.046	0.000000	1.480999
	55.5	-0.007627	0.000000	150	153.047	0.000000	1.480999
	58.25	-0.049081	0.000000	150	153.041	0.000000	1.480999
	61	-0.083896	0.000000	150	153.044	0.000000	1.480999
	63.75	-0.108401	0.000000	150	153.043	0.000000	1.480999
	66.5	-0.137779	0.000000	150	153.037	0.000000	1.480999
	69.25	-0.162919	0.000000	150	153.035	0.000000	1.480999
	72	-0.179515	0.000000	150	153.027	0.000000	1.480999
	74.75	-0.194063	0.000000	150	153.028	0.000000	1.480999
	77.5	-0.212706	0.000000	150	153.041	0.000000	1.480999
	80.25	-0.221887	0.000000	150	153.031	0.000000	1.480999
	83	-0.228525	0.000000	150	153.038	0.000000	1.480999
	85.75	-0.241519	0.000000	150	153.043	0.000000	1.480999
	88.5	-0.247451	0.000000	150	153.037	0.000000	1.480999
	91.25	-0.253171	0.000000	150	153.027	0.000000	1.480999
	94	-0.256278	0.000000	150	153.027	0.000000	1.480999
	96.75	-0.263905	0.000000	150	153.036	0.000000	1.480999
	99.5	-0.267860	0.000000	150	153.027	0.000000	1.480999
	102.25	-0.271532	0.000000	150	153.027	0.000000	1.480999
	105	-0.272874	0.000000	150	153.027	0.000000	1.480999
	107.75	-0.274639	0.000000	150	153.035	0.000000	1.480999
	110.5	-0.275911	0.000000	150	153.02	0.000000	1.480999
	113.25	-0.280925	0.000000	150	153.024	0.000000	1.480999
	116	-0.284244	0.000000	150	153.037	0.000000	1.480999
	118.75	-0.283467	0.000000	150	153.041	0.000000	1.480999
	121.5	-0.287916	0.000000	150	153.038	0.000000	1.480999
	124.25	-0.286150	0.000000	150	153.026	0.000000	1.480999
	127	-0.287987	0.000000	150	153.033	0.000000	1.480999
	129.75	-0.286998	0.000000	150	153.034	0.000000	1.480999
	132.5	-0.289470	0.000000	150	153.027	0.000000	1.480999
	135.25	-0.292789	0.000000	150	153.029	0.000000	1.480999
	138	-0.290811	0.000000	150	153.034	0.000000	1.480999
	140.75	-0.296108	0.000000	150	153.022	0.000000	1.480999
	143.5	-0.296461	0.000000	150	153.016	0.000000	1.480999
	146.25	-0.297167	0.000000	150	153.014	0.000000	1.480999
	149	-0.296955	0.000000	150	153.02	0.000000	1.480999
	151.75	-0.298297	0.000000	150	153.017	0.000000	1.480999
	154.5	-0.299003	0.000000	150	153.017	0.000000	1.480999
	157.25	-0.299992	0.000000	150	153.033	0.000000	1.480999
	160	-0.299709	0.000000	150	153.032	0.000000	1.480999
	162.75	-0.302181	0.000000	150	153.028	0.000000	1.480999
	165.5	-0.298297	0.000000	150	153.02	0.000000	1.480999
	168.25	-0.300910	0.000000	150	153.034	0.000000	1.480999
	171	-0.302393	0.000000	150	153.042	0.000000	1.480999
	173.75	-0.301546	0.000000	150	153.038	0.000000	1.480999
	176.5	-0.300204	0.000000	150	153.035	0.000000	1.480999
	179.25	-0.301192	0.000000	150	153.041	0.000000	1.480999
	182	-0.304229	0.000000	150	153.053	0.000000	1.480999
	184.75	-0.301192	0.000000	150	153.046	0.000000	1.480999
	187.5	-0.303593	0.000000	150	153.048	0.000000	1.480999
	190.25	-0.304653	0.000000	150	153.056	0.000000	1.480999
	193	-0.303947	0.000000	150	153.047	0.000000	1.480999
	195.75	-0.304653	0.000000	150	153.053	0.000000	1.480999
	198.5	-0.303240	0.000000	150	153.054	0.000000	1.480999
	201.25	-0.304794	0.000000	150	153.036	0.000000	1.480999
	204	-0.306065	0.000000	150	153.046	0.000000	1.480999
	206.75	-0.304017	0.000000	150	153.063	0.000000	1.480999
	209.5	-0.303947	0.000000	150	153.078	0.000000	1.480999
	212.25	-0.305571	0.000000	150	153.114	0.000000	1.480999
	215	-0.303382	0.000000	150	153.206	0.000000	1.480999
	217.75	-0.303876	0.000000	150	153.108	0.000000	1.480999
	220.5	-0.308254	0.000000	150	153.146	0.000000	1.480999
	223.25	-0.305147	0.000000	150	153.137	0.000000	1.480999
	226	-0.305924	0.000000	150	153.129	0.000000	1.480999
	228.75	-0.308678	0.000000	150	153.149	0.000000	1.480999
	231.5	-0.305924	0.000000	150	153.072	0.000000	1.480999
	234.25	-0.306348	0.000000	150	153.167	0.000000	1.480999
	237	-0.304935	0.000000	150	153.018	0.000000	1.480999
	239.75	-0.307619	0.000000	150	152.959	0.000000	1.480999
	242.5	-0.308113	0.000000	150	152.985	0.000000	1.480999
	245.25	-0.307901	0.000000	150	153.014	0.000000	1.480999
	248	-0.310514	0.000000	150	153.088	0.000000	1.480999
	250.75	-0.310444	0.000000	150	153.047	0.000000	1.480999
	253.5	-0.308325	0.000000	150	153.118	0.000000	1.480999
	256.25	-0.308466	0.000000	150	153.102	0.000000	1.480999
	259	-0.306489	0.000000	150	153.095	0.000000	1.480999
	261.75	-0.307195	0.000000	150	153.072	0.000000	1.480999
	264.5	-0.309243	0.000000	150	153.144	0.000000	1.480999
	267.25	-0.308466	0.000000	150	153.077	0.000000	1.480999
	270	-0.309949	0.000000	150	153.03	0.000000	1.480999
	272.75	-0.309596	0.000000	150	153.052	0.000000	1.480999
	275.5	-0.309455	0.000000	150	153.058	0.000000	1.480999
	278.25	-0.308113	0.000000	150	153.047	0.000000	1.480999
	281	-0.312350	0.000000	150	153.049	0.000000	1.480999
	283.75	-0.312562	0.000000	150	153.051	0.000000	1.480999
	286.5	-0.309384	0.000000	150	153.054	0.000000	1.480999
	289.25	-0.309879	0.000000	150	153.042	0.000000	1.480999
	292	-0.312138	0.000000	150	153.026	0.000000	1.480999
	294.75	-0.309384	0.000000	150	153.012	0.000000	1.480999
	297.5	-0.312986	0.000000	150	153.028	0.000000	1.480999
	300.25	-0.307972	0.000000	150	153.018	0.000000	1.480999
	303	-0.308749	0.000000	150	153.031	0.000000	1.480999
	305.75	-0.312492	0.000000	150	153.038	0.000000	1.480999
	308.5	-0.312986	0.000000	150	153.051	0.000000	1.480999
	311.25	-0.308325	0.000000	150	153.05	0.000000	1.480999
	314	-0.308819	0.000000	150	153.046	0.000000	1.480999
	316.75	-0.313480	0.000000	150	153.035	0.000000	1.480999
	319.5	-0.308043	0.000000	150	153.024	0.000000	1.480999
	322.25	-0.312492	0.000000	150	153.016	0.000000	1.480999
	325	-0.311856	0.000000	150	153.02	0.000000	1.480999
	327.75	-0.311856	0.000000	150	153.024	0.000000	1.480999
	330.5	-0.311503	0.000000	150	153.023	0.000000	1.480999
	333.25	-0.312986	0.000000	150	153.02	0.000000	1.480999
	336	-0.312986	0.000000	150	153.031	0.000000	1.480999
	338.75	-0.307760	0.000000	150	153.017	0.000000	1.480999
	341.5	-0.311503	0.000000	150	153.03	0.000000	1.480999
	344.25	-0.310302	0.000000	150	153.023	0.000000	1.480999
	347	-0.312845	0.000000	150	153.038	0.000000	1.480999
	349.75	-0.310514	0.000000	150	153.023	0.000000	1.480999
	352.5	-0.311715	0.000000	150	153.022	0.000000	1.480999
	355.25	-0.312138	0.000000	150	153.055	0.000000	1.480999
	358	-0.309526	0.000000	150	153.048	0.000000	1.480999
	360.75	-0.310444	0.000000	150	153.035	0.000000	1.480999
	363.5	-0.312986	0.000000	150	153.033	0.000000	1.480999
	366.25	-0.313763	0.000000	150	153.014	0.000000	1.480999
	369	-0.312633	0.000000	150	153.009	0.000000	1.480999
	371.75	-0.310726	0.000000	150	153.008	0.000000	1.480999
	374.5	-0.311573	0.000000	150	153.013	0.000000	1.480999
	377.25	-0.311927	0.000000	150	153.017	0.000000	1.480999
	380	-0.311927	0.000000	150	153.012	0.000000	1.480999
	382.75	-0.313127	0.000000	150	153.017	0.000000	1.480999
	385.5	-0.311009	0.000000	150	153.023	0.000000	1.480999
	388.25	-0.311503	0.000000	150	153.023	0.000000	1.480999
	391	-0.313904	0.000000	150	153.02	0.000000	1.480999
	393.75	-0.308537	0.000000	150	153.007	0.000000	1.480999
	396.5	-0.309667	0.000000	150	153.005	0.000000	1.480999
	399.25	-0.313621	0.000000	150	153.018	0.000000	1.480999
	402	-0.312421	0.000000	150	153.009	0.000000	1.480999
	404.75	-0.309384	0.000000	150	153.005	0.000000	1.480999
	407.5	-0.311785	0.000000	150	152.982	0.000000	1.480999
	410.25	-0.312774	0.000000	150	153.001	0.000000	1.480999
	413	-0.312986	0.000000	150	152.997	0.000000	1.480999
	415.75	-0.312774	0.000000	150	153.017	0.000000	1.480999
	418.5	-0.311432	0.000000	150	153.015	0.000000	1.480999
	421.25	-0.311715	0.000000	150	153.02	0.000000	1.480999
	424	-0.311573	0.000000	150	153.009	0.000000	1.480999
	426.75	-0.311785	0.000000	150	153.004	0.000000	1.480999
	429.5	-0.310090	0.000000	150	153.003	0.000000	1.480999
	432.25	-0.312138	0.000000	150	153.013	0.000000	1.480999
	435	-0.312138	0.000000	150	153.015	0.000000	1.480999
	437.75	-0.311927	0.000000	150	153.005	0.000000	1.480999
	440.5	-0.313904	0.000000	150	153.021	0.000000	1.480999
	443.25	-0.312280	0.000000	150	153.02	0.000000	1.480999
	446	-0.311150	0.000000	150	153.014	0.000000	1.480999
	448.75	-0.312350	0.000000	150	153.006	0.000000	1.480999
	451.5	-0.312986	0.000000	150	153.012	0.000000	1.480999
	454.25	-0.311220	0.000000	150	153.013	0.000000	1.480999
	457	-0.314540	0.000000	150	153.022	0.000000	1.480999
	459.75	-0.311009	0.000000	150	153.018	0.000000	1.480999
	462.5	-0.312703	0.000000	150	153.022	0.000000	1.480999
	465.25	-0.313198	0.000000	150	153.013	0.000000	1.480999
	468	-0.312068	0.000000	150	153.018	0.000000	1.480999
	470.75	-0.311997	0.000000	150	153.015	0.000000	1.480999
	473.5	-0.312845	0.000000	150	153.016	0.000000	1.480999
	476.25	-0.313127	0.000000	150	153.024	0.000000	1.480999
	479	-0.309384	0.000000	150	153.001	0.000000	1.480999
	480.483	-0.312421	0.000000	150	153.009	0.000000	1.480999
TEMPERATURE PID CALIBRATION VALUES:
	Proportional: 10  Integral: 500  Differential: 3

	SAMPLE TEMPERATURE CALIBRATION VALUES:
Reference	Expected (°C)	Measured (°C)	Method
Indium          	   156.600	   154.140
Tin             	   232.000	   232.000

K(x) = (0)x^3 + (0)x^2 + (0.9684)x + (7.3301)

SAMPLE TEMPERATURE CALIBRATION COMPUTED RESULTS:

		FURNACE CALIBRATION VALUES:
	Setpoint	Expected Temperature	Measured Temperature
	      1	        50.000 °C		      49.000 °C
	      2	       100.000 °C		      98.700 °C
	      3	       150.000 °C		     146.900 °C
	      4	       200.000 °C		     195.900 °C
	      5	       250.000 °C		     245.000 °C
	      6	       300.000 °C		     294.400 °C
	      7	       350.000 °C		     343.400 °C
	      8	       400.000 °C		     392.700 °C
	      9	       450.000 °C		     441.700 °C
	     10	       500.000 °C		     490.800 °C

	PROFILE VALUES FOR THIS DATA:

Software Version	11.0.0.0449
Firmware Version	1.2
Instrument Serial Number	587P2203
Load Temperature	30.0 °C
Go To Temp Rate	50.0 °C/min

NEWPAGE

	SAPPHIRE DSC HEAT OF FUSION CALIBRATION VALUES:
Reference	Temperature (°C)	Expected (W/g)	Measured (W/g)
Indium          	   154.140	    28.450 	     19.210

SAPPHIRE DSC HEAT OF FUSION CALIBRATION COMPUTED RESULTS:
Date:	7-11-2013 18:01:23
K(x) = (0)x^3 + (0)x^2 + (0)x + (1.481)