File: Curekinetics/lme_0_11.txt
Filename:	d:\clemens 2016\lme_0_11.drdd
Operator ID:
Sample ID:	LME_0_11
Comment: 	Isothermal 180C 4h
Serial Number:	587P2203
Data Collected:	10-10-2016 15:01:07
Sample Weight:	14.400 mg
Display Weight:	14.400
Validation
Validated:	No
By:
Date:
Calibration Information
Filename:	C:\Program Files\PerkinElmer\Pyris\Calibrations\default.drdc
Date/Time:
Initial Conditions
Temperature:	 30.00 °C
Y Initial:	20.00 mW
Sample Rate:	Standard
Baseline Filename:	D:\foostrum\FiberCore baseline.drdd
End Condition:	Go To Load
Total Points in Run:	14490
Method Steps:
Pre-Run Actions
Start the Run
	Action occurs Immediately
Switch the Gas to Nitrogen at 20.0 ml/min
	Action occurs Immediately
1)	Heat from 30.00°C to 180.00°C at 100.00°C/min

2)	Hold for 240.0 min at 180.00°C

1) Sapphire DSC Temperature Scan
	Time     	Unsubtracted	Baseline     	Program     	Sample     	Approx.     	Heat Flow
	          	Heat Flow     	Heat Flow     	Temperature	Temperature	Gas Flow     	Calibration
	0.000000	-1.601652	0.000000	31.6667	35.5963	0.000000	1.480999
	0.016667	-1.541978	0.000000	31.6667	35.6081	0.000000	1.480999
	0.033333	-1.481104	0.000000	33.3333	35.6181	0.000000	1.480999
	0.050000	-1.429834	0.000000	35	35.6274	0.000000	1.480999
	0.066667	-1.375740	0.000000	36.6667	35.6371	0.000000	1.480999
	0.083333	-1.325812	0.000000	38.3333	35.6471	0.000000	1.480999
	0.100000	-1.259712	0.000000	40	35.6586	0.000000	1.480999
	0.116667	-1.177793	0.000000	41.6667	35.6768	0.000000	1.480999
	0.133333	-1.054138	0.000000	43.3333	35.7049	0.000000	1.480999
	0.150000	-0.906826	0.000000	45	35.7473	0.000000	1.480999
	0.166667	-0.725334	0.000000	46.6667	35.8108	0.000000	1.480999
	0.183333	-0.492360	0.000000	48.3333	35.8988	0.000000	1.480999
	0.200000	-0.254442	0.000000	50	36.0189	0.000000	1.480999
	0.216667	0.028036	0.000000	51.6667	36.1717	0.000000	1.480999
	0.233333	0.295755	0.000000	53.3333	36.3663	0.000000	1.480999
	0.250000	0.591227	0.000000	55	36.5992	0.000000	1.480999
	0.266667	0.857675	0.000000	56.6667	36.8867	0.000000	1.480999
	0.283333	1.110351	0.000000	58.3333	37.2183	0.000000	1.480999
	0.300000	1.327507	0.000000	60	37.6004	0.000000	1.480999
	0.316667	1.547204	0.000000	61.6667	38.0276	0.000000	1.480999
	0.333333	1.717750	0.000000	63.3333	38.5041	0.000000	1.480999
	0.350000	1.853693	0.000000	65	39.0266	0.000000	1.480999
	0.366667	1.957927	0.000000	66.6667	39.5939	0.000000	1.480999
	0.383333	2.008561	0.000000	68.3333	40.2184	0.000000	1.480999
	0.400000	2.013081	0.000000	70	40.8867	0.000000	1.480999
	0.416667	1.970215	0.000000	71.6667	41.6141	0.000000	1.480999
	0.433333	1.868664	0.000000	73.3333	42.3829	0.000000	1.480999
	0.450000	1.727284	0.000000	75	43.2095	0.000000	1.480999
	0.466667	1.515072	0.000000	76.6667	44.076	0.000000	1.480999
	0.483333	1.272423	0.000000	78.3333	44.9954	0.000000	1.480999
	0.500000	0.952658	0.000000	80	45.9521	0.000000	1.480999
	0.516667	0.614249	0.000000	81.6667	46.9493	0.000000	1.480999
	0.533333	0.231985	0.000000	83.3333	47.994	0.000000	1.480999
	0.550000	-0.213907	0.000000	85	49.0683	0.000000	1.480999
	0.566667	-0.669332	0.000000	86.6667	50.1873	0.000000	1.480999
	0.583333	-1.224755	0.000000	88.3333	51.3324	0.000000	1.480999
	0.600000	-1.768879	0.000000	90	52.5263	0.000000	1.480999
	0.616667	-2.403960	0.000000	91.6667	53.7425	0.000000	1.480999
	0.633333	-3.012842	0.000000	93.3333	55.007	0.000000	1.480999
	0.650000	-3.717060	0.000000	95	56.296	0.000000	1.480999
	0.666667	-4.383497	0.000000	96.6667	57.6239	0.000000	1.480999
	0.683333	-5.070414	0.000000	98.3333	58.978	0.000000	1.480999
	0.700000	-5.850548	0.000000	100	60.3531	0.000000	1.480999
	0.716667	-6.576164	0.000000	101.667	61.7632	0.000000	1.480999
	0.733333	-7.390902	0.000000	103.333	63.183	0.000000	1.480999
	0.750000	-8.142576	0.000000	105	64.6391	0.000000	1.480999
	0.766667	-8.976876	0.000000	106.667	66.0946	0.000000	1.480999
	0.783333	-9.740485	0.000000	108.333	67.586	0.000000	1.480999
	0.800000	-10.5818	0.000000	110	69.0792	0.000000	1.480999
	0.816667	-11.3505	0.000000	111.667	70.6027	0.000000	1.480999
	0.833333	-12.1908	0.000000	113.333	72.13	0.000000	1.480999
	0.850000	-12.9526	0.000000	115	73.6743	0.000000	1.480999
	0.866667	-13.7074	0.000000	116.667	75.232	0.000000	1.480999
	0.883333	-14.5312	0.000000	118.333	76.7894	0.000000	1.480999
	0.900000	-15.2705	0.000000	120	78.3732	0.000000	1.480999
	0.916667	-16.0706	0.000000	121.667	79.95	0.000000	1.480999
	0.933333	-16.7791	0.000000	123.333	81.5479	0.000000	1.480999
	0.950000	-17.547	0.000000	125	83.1387	0.000000	1.480999
	0.966667	-18.2306	0.000000	126.667	84.7566	0.000000	1.480999
	0.983333	-18.9653	0.000000	128.333	86.3617	0.000000	1.480999
	1.000000	-19.6149	0.000000	130	87.9837	0.000000	1.480999
	1.016667	-20.248	0.000000	131.667	89.6019	0.000000	1.480999
	1.033333	-20.9205	0.000000	133.333	91.2221	0.000000	1.480999
	1.050000	-21.5102	0.000000	135	92.8504	0.000000	1.480999
	1.066667	-22.1332	0.000000	136.667	94.4715	0.000000	1.480999
	1.083333	-22.6776	0.000000	138.333	96.1066	0.000000	1.480999
	1.100000	-23.2569	0.000000	140	97.7277	0.000000	1.480999
	1.116667	-23.7651	0.000000	141.667	99.3696	0.000000	1.480999
	1.133333	-24.3054	0.000000	143.333	101	0.000000	1.480999
	1.150000	-24.7796	0.000000	145	102.645	0.000000	1.480999
	1.166667	-25.2877	0.000000	146.667	104.274	0.000000	1.480999
	1.183333	-25.7374	0.000000	148.333	105.908	0.000000	1.480999
	1.200000	-26.1757	0.000000	150	107.545	0.000000	1.480999
	1.216667	-26.6431	0.000000	151.667	109.178	0.000000	1.480999
	1.233333	-27.055	0.000000	153.333	110.821	0.000000	1.480999
	1.250000	-27.4976	0.000000	155	112.446	0.000000	1.480999
	1.266667	-27.8896	0.000000	156.667	114.086	0.000000	1.480999
	1.283333	-28.3098	0.000000	158.333	115.706	0.000000	1.480999
	1.300000	-28.683	0.000000	160	117.34	0.000000	1.480999
	1.316667	-29.083	0.000000	161.667	118.961	0.000000	1.480999
	1.333333	-29.4349	0.000000	163.333	120.595	0.000000	1.480999
	1.350000	-29.7733	0.000000	165	122.218	0.000000	1.480999
	1.366667	-30.125	0.000000	166.667	123.841	0.000000	1.480999
	1.383333	-30.425	0.000000	168.333	125.466	0.000000	1.480999
	1.400000	-30.7266	0.000000	170	127.087	0.000000	1.480999
	1.416667	-30.9699	0.000000	171.667	128.727	0.000000	1.480999
	1.433333	-31.195	0.000000	173.333	130.345	0.000000	1.480999
	1.450000	-31.3532	0.000000	175	131.977	0.000000	1.480999
	1.466667	-31.4698	0.000000	176.667	133.592	0.000000	1.480999
	1.483333	-31.5196	0.000000	178.333	135.225	0.000000	1.480999
2) Sapphire DSC Isothermal
	1.500000	-31.5102	0.000000	180	136.84	0.000000	1.480999
	2.883333	6.653704	0.000000	180	181.227	0.000000	1.480999
	4.266667	10.921	0.000000	180	181.945	0.000000	1.480999
	5.650000	12.579	0.000000	180	182.332	0.000000	1.480999
	7.033333	11.0221	0.000000	180	182.382	0.000000	1.480999
	8.416667	8.285086	0.000000	180	182.294	0.000000	1.480999
	9.800000	6.066997	0.000000	180	182.184	0.000000	1.480999
	11.1833	4.513155	0.000000	180	182.126	0.000000	1.480999
	12.5667	3.453014	0.000000	180	182.087	0.000000	1.480999
	13.95	2.690535	0.000000	180	182.076	0.000000	1.480999
	15.3333	2.137160	0.000000	180	182.08	0.000000	1.480999
	16.7167	1.717256	0.000000	180	182.078	0.000000	1.480999
	18.1	1.381107	0.000000	180	182.085	0.000000	1.480999
	19.4833	1.116213	0.000000	180	182.067	0.000000	1.480999
	20.8667	0.892702	0.000000	180	182.073	0.000000	1.480999
	22.25	0.715306	0.000000	180	182.067	0.000000	1.480999
	23.6333	0.560507	0.000000	180	182.073	0.000000	1.480999
	25.0167	0.434805	0.000000	180	182.074	0.000000	1.480999
	26.4	0.323720	0.000000	180	182.065	0.000000	1.480999
	27.7833	0.230149	0.000000	180	182.078	0.000000	1.480999
	29.1667	0.151761	0.000000	180	182.074	0.000000	1.480999
	30.55	0.079447	0.000000	180	182.068	0.000000	1.480999
	31.9333	0.024576	0.000000	180	182.073	0.000000	1.480999
	33.3167	-0.030084	0.000000	180	182.082	0.000000	1.480999
	34.7	-0.069348	0.000000	180	182.073	0.000000	1.480999
	36.0833	-0.104164	0.000000	180	182.068	0.000000	1.480999
	37.4667	-0.143711	0.000000	180	182.088	0.000000	1.480999
	38.85	-0.164755	0.000000	180	182.083	0.000000	1.480999
	40.2333	-0.191873	0.000000	180	182.079	0.000000	1.480999
	41.6167	-0.212494	0.000000	180	182.08	0.000000	1.480999
	43	-0.215248	0.000000	180	182.07	0.000000	1.480999
	44.3833	-0.249640	0.000000	180	182.055	0.000000	1.480999
	45.7667	-0.266518	0.000000	180	182.05	0.000000	1.480999
	47.15	-0.276687	0.000000	180	182.062	0.000000	1.480999
	48.5333	-0.287563	0.000000	180	182.056	0.000000	1.480999
	49.9167	-0.301122	0.000000	180	182.052	0.000000	1.480999
	51.3	-0.312280	0.000000	180	182.055	0.000000	1.480999
	52.6833	-0.317576	0.000000	180	182.048	0.000000	1.480999
	54.0667	-0.331488	0.000000	180	182.056	0.000000	1.480999
	55.45	-0.334595	0.000000	180	182.058	0.000000	1.480999
	56.8333	-0.342293	0.000000	180	182.06	0.000000	1.480999
	58.2167	-0.352321	0.000000	180	182.063	0.000000	1.480999
	59.6	-0.352180	0.000000	180	182.072	0.000000	1.480999
	60.9833	-0.361148	0.000000	180	182.075	0.000000	1.480999
	62.3667	-0.369270	0.000000	180	182.09	0.000000	1.480999
	63.75	-0.367292	0.000000	180	182.085	0.000000	1.480999
	65.1333	-0.369482	0.000000	180	182.073	0.000000	1.480999
	66.5167	-0.372306	0.000000	180	182.071	0.000000	1.480999
	67.9	-0.380004	0.000000	180	182.082	0.000000	1.480999
	69.2833	-0.381840	0.000000	180	182.088	0.000000	1.480999
	70.6667	-0.379580	0.000000	180	182.079	0.000000	1.480999
	72.05	-0.380993	0.000000	180	182.078	0.000000	1.480999
	73.4333	-0.386854	0.000000	180	182.078	0.000000	1.480999
	74.8167	-0.382122	0.000000	180	182.063	0.000000	1.480999
	76.2	-0.385865	0.000000	180	182.075	0.000000	1.480999
	77.5833	-0.387913	0.000000	180	182.097	0.000000	1.480999
	78.9667	-0.386077	0.000000	180	182.099	0.000000	1.480999
	80.35	-0.395046	0.000000	180	182.12	0.000000	1.480999
	81.7333	-0.388196	0.000000	180	182.138	0.000000	1.480999
	83.1167	-0.385088	0.000000	180	182.133	0.000000	1.480999
	84.5	-0.391585	0.000000	180	182.152	0.000000	1.480999
	85.8833	-0.386783	0.000000	180	182.155	0.000000	1.480999
	87.2667	-0.390314	0.000000	180	182.16	0.000000	1.480999
	88.65	-0.383747	0.000000	180	182.163	0.000000	1.480999
	90.0333	-0.392574	0.000000	180	182.176	0.000000	1.480999
	91.4167	-0.388831	0.000000	180	182.161	0.000000	1.480999
	92.8	-0.390032	0.000000	180	182.165	0.000000	1.480999
	94.1833	-0.386007	0.000000	180	182.162	0.000000	1.480999
	95.5667	-0.387772	0.000000	180	182.158	0.000000	1.480999
	96.95	-0.387560	0.000000	180	182.149	0.000000	1.480999
	98.3333	-0.388054	0.000000	180	182.167	0.000000	1.480999
	99.7167	-0.376826	0.000000	180	182.165	0.000000	1.480999
	101.1	-0.386995	0.000000	180	182.148	0.000000	1.480999
	102.483	-0.387278	0.000000	180	182.144	0.000000	1.480999
	103.867	-0.383817	0.000000	180	182.138	0.000000	1.480999
	105.25	-0.389043	0.000000	180	182.134	0.000000	1.480999
	106.633	-0.385230	0.000000	180	182.127	0.000000	1.480999
	108.017	-0.383676	0.000000	180	182.127	0.000000	1.480999
	109.4	-0.390314	0.000000	180	182.13	0.000000	1.480999
	110.783	-0.388125	0.000000	180	182.136	0.000000	1.480999
	112.167	-0.390385	0.000000	180	182.149	0.000000	1.480999
	113.55	-0.383747	0.000000	180	182.149	0.000000	1.480999
	114.933	-0.384524	0.000000	180	182.135	0.000000	1.480999
	116.317	-0.389608	0.000000	180	182.144	0.000000	1.480999
	117.7	-0.397941	0.000000	180	182.173	0.000000	1.480999
	119.083	-0.382264	0.000000	180	182.164	0.000000	1.480999
	120.467	-0.386925	0.000000	180	182.171	0.000000	1.480999
	121.85	-0.389679	0.000000	180	182.176	0.000000	1.480999
	123.233	-0.385865	0.000000	180	182.174	0.000000	1.480999
	124.617	-0.387984	0.000000	180	182.168	0.000000	1.480999
	126	-0.385018	0.000000	180	182.154	0.000000	1.480999
	127.383	-0.385512	0.000000	180	182.158	0.000000	1.480999
	128.767	-0.390102	0.000000	180	182.161	0.000000	1.480999
	130.15	-0.390456	0.000000	180	182.154	0.000000	1.480999
	131.533	-0.394905	0.000000	180	182.156	0.000000	1.480999
	132.917	-0.391091	0.000000	180	182.163	0.000000	1.480999
	134.3	-0.391162	0.000000	180	182.177	0.000000	1.480999
	135.683	-0.389961	0.000000	180	182.184	0.000000	1.480999
	137.067	-0.382687	0.000000	180	182.165	0.000000	1.480999
	138.45	-0.392645	0.000000	180	182.165	0.000000	1.480999
	139.833	-0.384382	0.000000	180	182.161	0.000000	1.480999
	141.217	-0.394693	0.000000	180	182.175	0.000000	1.480999
	142.6	-0.389467	0.000000	180	182.17	0.000000	1.480999
	143.983	-0.388196	0.000000	180	182.169	0.000000	1.480999
	145.367	-0.389326	0.000000	180	182.16	0.000000	1.480999
	146.75	-0.391232	0.000000	180	182.148	0.000000	1.480999
	148.133	-0.384100	0.000000	180	182.154	0.000000	1.480999
	149.517	-0.392645	0.000000	180	182.158	0.000000	1.480999
	150.9	-0.384100	0.000000	180	182.153	0.000000	1.480999
	152.283	-0.385936	0.000000	180	182.161	0.000000	1.480999
	153.667	-0.386007	0.000000	180	182.156	0.000000	1.480999
	155.05	-0.389679	0.000000	180	182.16	0.000000	1.480999
	156.433	-0.387419	0.000000	180	182.158	0.000000	1.480999
	157.817	-0.392574	0.000000	180	182.164	0.000000	1.480999
	159.2	-0.391303	0.000000	180	182.162	0.000000	1.480999
	160.583	-0.386854	0.000000	180	182.151	0.000000	1.480999
	161.967	-0.391727	0.000000	180	182.157	0.000000	1.480999
	163.35	-0.391727	0.000000	180	182.156	0.000000	1.480999
	164.733	-0.390667	0.000000	180	182.154	0.000000	1.480999
	166.117	-0.391939	0.000000	180	182.158	0.000000	1.480999
	167.5	-0.389396	0.000000	180	182.158	0.000000	1.480999
	168.883	-0.387490	0.000000	180	182.155	0.000000	1.480999
	170.267	-0.389255	0.000000	180	182.149	0.000000	1.480999
	171.65	-0.388125	0.000000	180	182.144	0.000000	1.480999
	173.033	-0.389537	0.000000	180	182.136	0.000000	1.480999
	174.417	-0.389255	0.000000	180	182.152	0.000000	1.480999
	175.8	-0.386783	0.000000	180	182.142	0.000000	1.480999
	177.183	-0.384029	0.000000	180	182.136	0.000000	1.480999
	178.567	-0.385159	0.000000	180	182.143	0.000000	1.480999
	179.95	-0.391162	0.000000	180	182.137	0.000000	1.480999
	181.333	-0.388196	0.000000	180	182.149	0.000000	1.480999
	182.717	-0.392857	0.000000	180	182.15	0.000000	1.480999
	184.1	-0.388196	0.000000	180	182.152	0.000000	1.480999
	185.483	-0.386642	0.000000	180	182.147	0.000000	1.480999
	186.867	-0.385159	0.000000	180	182.133	0.000000	1.480999
	188.25	-0.388690	0.000000	180	182.132	0.000000	1.480999
	189.633	-0.393422	0.000000	180	182.134	0.000000	1.480999
	191.017	-0.393704	0.000000	180	182.149	0.000000	1.480999
	192.4	-0.391091	0.000000	180	182.148	0.000000	1.480999
	193.783	-0.392504	0.000000	180	182.146	0.000000	1.480999
	195.167	-0.388125	0.000000	180	182.146	0.000000	1.480999
	196.55	-0.386854	0.000000	180	182.131	0.000000	1.480999
	197.933	-0.385936	0.000000	180	182.127	0.000000	1.480999
	199.317	-0.390032	0.000000	180	182.137	0.000000	1.480999
	200.7	-0.391444	0.000000	180	182.143	0.000000	1.480999
	202.083	-0.390032	0.000000	180	182.143	0.000000	1.480999
	203.467	-0.387772	0.000000	180	182.142	0.000000	1.480999
	204.85	-0.386642	0.000000	180	182.135	0.000000	1.480999
	206.233	-0.392857	0.000000	180	182.15	0.000000	1.480999
	207.617	-0.383676	0.000000	180	182.136	0.000000	1.480999
	209	-0.387490	0.000000	180	182.129	0.000000	1.480999
	210.383	-0.395540	0.000000	180	182.142	0.000000	1.480999
	211.767	-0.387913	0.000000	180	182.135	0.000000	1.480999
	213.15	-0.387772	0.000000	180	182.138	0.000000	1.480999
	214.533	-0.394128	0.000000	180	182.139	0.000000	1.480999
	215.917	-0.386642	0.000000	180	182.142	0.000000	1.480999
	217.3	-0.386289	0.000000	180	182.138	0.000000	1.480999
	218.683	-0.389467	0.000000	180	182.142	0.000000	1.480999
	220.067	-0.384382	0.000000	180	182.139	0.000000	1.480999
	221.45	-0.390597	0.000000	180	182.142	0.000000	1.480999
	222.833	-0.388054	0.000000	180	182.13	0.000000	1.480999
	224.217	-0.388337	0.000000	180	182.132	0.000000	1.480999
	225.6	-0.389184	0.000000	180	182.141	0.000000	1.480999
	226.983	-0.388125	0.000000	180	182.133	0.000000	1.480999
	228.367	-0.392504	0.000000	180	182.131	0.000000	1.480999
	229.75	-0.392433	0.000000	180	182.138	0.000000	1.480999
	231.133	-0.389891	0.000000	180	182.141	0.000000	1.480999
	232.517	-0.386854	0.000000	180	182.137	0.000000	1.480999
	233.9	-0.389820	0.000000	180	182.136	0.000000	1.480999
	235.283	-0.399071	0.000000	180	182.151	0.000000	1.480999
	236.667	-0.387136	0.000000	180	182.138	0.000000	1.480999
	238.05	-0.386430	0.000000	180	182.124	0.000000	1.480999
	239.433	-0.391303	0.000000	180	182.119	0.000000	1.480999
	240.817	-0.390526	0.000000	180	182.154	0.000000	1.480999
	241.483	-0.395752	0.000000	180	182.166	0.000000	1.480999
TEMPERATURE PID CALIBRATION VALUES:
	Proportional: 10  Integral: 500  Differential: 3

	SAMPLE TEMPERATURE CALIBRATION VALUES:
Reference	Expected (°C)	Measured (°C)	Method
Indium          	   156.600	   154.140
Tin             	   232.000	   232.000

K(x) = (0)x^3 + (0)x^2 + (0.9684)x + (7.3301)

SAMPLE TEMPERATURE CALIBRATION COMPUTED RESULTS:

		FURNACE CALIBRATION VALUES:
	Setpoint	Expected Temperature	Measured Temperature
	      1	        50.000 °C		      49.000 °C
	      2	       100.000 °C		      98.700 °C
	      3	       150.000 °C		     146.900 °C
	      4	       200.000 °C		     195.900 °C
	      5	       250.000 °C		     245.000 °C
	      6	       300.000 °C		     294.400 °C
	      7	       350.000 °C		     343.400 °C
	      8	       400.000 °C		     392.700 °C
	      9	       450.000 °C		     441.700 °C
	     10	       500.000 °C		     490.800 °C

	PROFILE VALUES FOR THIS DATA:

Software Version	11.0.0.0449
Firmware Version	1.2
Instrument Serial Number	587P2203
Load Temperature	30.0 °C
Go To Temp Rate	50.0 °C/min

NEWPAGE

	SAPPHIRE DSC HEAT OF FUSION CALIBRATION VALUES:
Reference	Temperature (°C)	Expected (W/g)	Measured (W/g)
Indium          	   154.140	    28.450 	     19.210

SAPPHIRE DSC HEAT OF FUSION CALIBRATION COMPUTED RESULTS:
Date:	7-11-2013 18:01:23
K(x) = (0)x^3 + (0)x^2 + (0)x + (1.481)